% Wavelength: from 400nm to 700nm with 5nm intervals.
lambda=[400	405	410	415	420	425	430	435	440	445	450	455	460	465	470	475	480	485	490	495	500	505	510	515	520	525	530	535	540	545	550	555	560	565	570	575	580	585	590	595	600	605	610	615	620	625	630	635	640	645	650	655	660	665	670	675	680	685	690	695	700];

% Spectral power distribution of Illuminants A, D65, F2 and F11. From 400nm
% to 700nm with 5nm intervals.
A=[14.71	16.15	17.68	19.29	21	22.79	24.67	26.64	28.7	30.85	33.09	35.41	37.81	40.3	42.87	45.52	48.24	51.04	53.91	56.85	59.86	62.93	66.06	69.25	72.5	75.79	79.13	82.52	85.95	89.41	92.91	96.44	100	103.58	107.18	110.8	114.44	118.08	121.73	125.39	129.04	132.7	136.35	139.99	143.62	147.24	150.84	154.42	157.98	161.52	165.03	168.51	171.96	175.38	178.77	182.12	185.43	188.7	191.93	195.12	198.26];
D65=[82.75	87.12	91.49	92.46	93.43	90.06	86.68	95.77	104.87	110.94	117.01	117.41	117.81	116.34	114.86	115.39	115.92	112.37	108.81	109.08	109.35	108.58	107.8	106.3	104.79	106.24	107.69	106.05	104.41	104.23	104.05	102.02	100	98.17	96.33	96.06	95.79	92.24	88.69	89.35	90.01	89.8	89.6	88.65	87.7	85.49	83.29	83.49	83.7	81.86	80.03	80.12	80.21	81.25	82.28	80.28	78.28	74	69.72	70.67	71.61];
F2=[3.44	15.69	3.85	3.74	4.19	4.62	5.06	34.98	11.81	6.27	6.63	6.93	7.19	7.4	7.54	7.62	7.65	7.62	7.62	7.45	7.28	7.15	7.05	7.04	7.16	7.47	8.04	8.88	10.01	24.88	16.64	14.59	16.16	17.56	18.62	21.47	22.79	19.29	18.66	17.73	16.54	15.21	13.8	12.36	10.95	9.65	8.4	7.32	6.31	5.43	4.68	4.02	3.45	2.96	2.55	2.19	1.89	1.64	1.53	1.27	1.1];
F11=[1.29	12.68	1.59	1.79	2.46	3.33	4.49	33.94	12.13	6.95	7.19	7.12	6.72	6.13	5.46	4.79	5.66	14.29	14.96	8.97	4.72	2.33	1.47	1.1	0.89	0.83	1.18	4.9	39.59	72.84	32.61	7.52	2.83	1.96	1.67	4.43	11.28	14.76	12.73	9.74	7.33	9.72	55.27	42.58	13.18	13.16	12.26	5.11	2.07	2.34	3.58	3.01	2.48	2.14	1.54	1.33	1.46	1.94	2	1.2	1.35];
EE(1,1:61)=1;
A=A/max(A);
D65=D65/max(D65);
F11=F11/max(F11);
xyz=[0.01431	0.00040	0.06785
0.02319	0.00064	0.11020
0.04351	0.00121	0.20740
0.07763	0.00218	0.37130
0.13438	0.00400	0.64560
0.21477	0.00730	1.03905
0.28390	0.01160	1.38560
0.32850	0.01684	1.62296
0.34828	0.02300	1.74706
0.34806	0.02980	1.78260
0.33620	0.03800	1.77211
0.31870	0.04800	1.74410
0.29080	0.06000	1.66920
0.25110	0.07390	1.52810
0.19536	0.09098	1.28764
0.14210	0.11260	1.04190
0.09564	0.13902	0.81295
0.05795	0.16930	0.61620
0.03201	0.20802	0.46518
0.01470	0.25860	0.35330
0.00490	0.32300	0.27200
0.00240	0.40730	0.21230
0.00930	0.50300	0.15820
0.02910	0.60820	0.11170
0.06327	0.71000	0.07825
0.10960	0.79320	0.05725
0.16550	0.86200	0.04216
0.22575	0.91485	0.02984
0.29040	0.95400	0.02030
0.35970	0.98030	0.01340
0.43345	0.99495	0.00875
0.51205	1.00000	0.00575
0.59450	0.99500	0.00390
0.67840	0.97860	0.00275
0.76210	0.95200	0.00210
0.84250	0.91540	0.00180
0.91630	0.87000	0.00165
0.97860	0.81630	0.00140
1.02630	0.75700	0.00110
1.05670	0.69490	0.00100
1.06220	0.63100	0.00080
1.04560	0.56680	0.00060
1.00260	0.50300	0.00034
0.93840	0.44120	0.00024
0.85445	0.38100	0.00019
0.75140	0.32100	0.00010
0.64240	0.26500	0.00005
0.54190	0.21700	0.00003
0.44790	0.17500	0.00002
0.36080	0.13820	0.00001
0.28350	0.10700	0.00000
0.21870	0.08160	0.00000
0.16490	0.06100	0.00000
0.12120	0.04458	0.00000
0.08740	0.03200	0.00000
0.06360	0.02320	0.00000
0.04677	0.01700	0.00000
0.03290	0.01192	0.00000
0.02270	0.00821	0.00000
0.01584	0.00572	0.00000
0.01136	0.00410	0.00000
];
xyz1=xyz(1:2:61,:);

% Color matching functions of the CIE 1964 standard observer,
% from 400 to 700 nm with 10 nm intervals.
COL=[.0191,0.0847,.2045,0.3146,.3837,0.3707,.3023,0.1956,.0805,0.0162,.0038,0.0374,.1177,0.2365,.3768,0.5298,.7052,.8786,1.0142,1.1185,1.1240,1.0305,.8563,0.6475,.4315,.2683,.1526,.0813,.0409,0.01994,.0096;
    .0020,0.0087,.0214,0.0386,.0621,0.0894,.1282,.1852,.2536,0.3391,.4608,.6067,.7618,0.8752,.9620,0.9917,.9973,0.9555,.8689,0.777,.6583,0.5279,.3981,0.2835,.1798,.1076,.0603,0.0318,.0159,0.0077,.0037;
   .0860,0.389,.9725,1.5535,1.9673,1.995,1.7454,1.3175,.7721,0.4152,.2185,0.112,.0607,0.0258,.0137,0.003,0,0,0,0,0,0,0,0,0,0,0,0,0,0,0]';